# https://pubs.acs.org/doi/pdf/10.1021/acs.jpcc.0c04094
# Distance(A) ElectronDensity
-6.42690 35.44965
-6.37992 91.33384
-6.35662 152.32392
-6.34118 208.23688
-6.32584 284.48705
-6.31074 401.41166
-6.29573 533.58918
-6.28137 782.70570
-6.28090 698.81468
-6.26705 1036.90652
-6.26670 975.89487
-6.26626 897.08816
-6.25284 1311.44455
-6.25249 1250.43290
-6.25205 1171.62619
-6.23932 1708.00588
-6.23897 1646.99423
-6.23863 1585.98258
-6.23817 1504.63372
-6.22585 2114.73582
-6.22551 2053.72417
-6.22516 1992.71252
-6.22468 1906.27935
-6.21280 2592.64601
-6.21245 2531.63436
-6.21210 2470.62271
-6.21176 2409.61106
-6.21131 2330.80435
-6.20002 3121.39924
-6.19968 3060.38759
-6.19933 2999.37595
-6.19899 2938.36430
-6.19864 2877.35265
-6.19817 2793.46163
-6.18719 3639.98387
-6.18685 3578.97222
-6.18650 3517.96057
-6.18616 3456.94892
-6.18581 3395.93728
-6.18550 3340.00993
-6.17448 4178.90571
-6.17413 4117.89406
-6.17379 4056.88241
-6.17344 3995.87077
-6.17298 3914.52190
-6.16177 4717.82755
-6.16142 4656.81590
-6.16107 4595.80425
-6.16073 4534.79261
-6.16026 4450.90159
-6.14859 5175.40053
-6.14825 5114.38888
-6.14790 5053.37723
-6.14743 4969.48622
-6.13496 5551.62464
-6.13416 5411.80628
-6.10698 6178.66004
-6.04066 5602.38139
-6.02346 5348.15180
-6.02312 5287.14015
-6.02277 5226.12851
-6.02243 5165.11686
-6.02208 5104.10521
-6.02163 5025.29850
-6.00505 4880.38145
-6.00471 4819.36980
-6.00436 4758.35816
-6.00402 4697.34651
-6.00367 4636.33486
-6.00318 4549.90169
-5.98658 4402.44249
-5.98624 4341.43084
-5.98589 4280.41920
-5.98555 4219.40755
-5.98520 4158.39590
-5.98486 4097.38425
-5.98440 4016.03539
-5.96766 3843.15467
-5.96731 3782.14302
-5.96697 3721.13137
-5.96662 3660.11973
-5.96627 3599.10808
-5.96593 3538.09643
-5.96548 3459.28972
-5.94873 3283.86685
-5.94838 3222.85520
-5.94804 3161.84355
-5.94769 3100.83190
-5.94735 3039.82025
-5.94700 2978.80861
-5.94669 2922.88126
-5.92992 2744.91624
-5.92957 2683.90459
-5.92922 2622.89294
-5.92888 2561.88130
-5.92853 2500.86965
-5.92822 2444.94230
-5.91145 2266.97728
-5.91110 2205.96563
-5.91076 2144.95398
-5.91041 2083.94234
-5.90994 2000.05132
-5.89310 1809.37554
-5.89275 1748.36389
-5.89241 1687.35224
-5.89192 1600.91907
-5.87520 1433.12266
-5.87486 1372.11101
-5.87437 1285.67784
-5.85720 1036.53256
-5.85674 955.18370
-5.84011 802.64020
-5.83979 746.71285
-5.82337 629.75948
-5.82302 568.74783
-5.80644 423.83078
-5.79009 319.58817
-5.77378 222.97201
-5.74967 141.60157
-5.71778 78.01901
-5.62299 41.07151
-5.57598 90.60032
-5.54482 154.12536
-5.51376 237.98761
-5.48277 332.01846
-5.46739 400.64219
-5.45206 476.89236
-5.43674 555.68469
-5.42146 639.56133
-5.40615 720.89581
-5.39086 804.77244
-5.38331 863.23474
-5.36795 934.40062
-5.35256 1000.48219
-5.32938 1081.80948
-5.27462 1154.63416
-5.23481 1084.26533
-5.21072 1005.43705
-5.19451 926.61595
-5.17834 855.42131
-5.16212 774.05807
-5.14590 692.69482
-5.12977 629.12664
-5.11358 552.84769
-5.09736 471.48445
-5.08119 400.28981
-5.06505 334.17947
-5.04096 255.35119
-5.00893 166.34710
-4.96909 90.04658
-4.89684 13.12224
-4.54318 3.67546
-4.15694 30.83638
-4.10215 99.42414
-4.06321 180.73705
-4.03221 274.76791
-4.00907 363.72165
-3.98596 457.75970
-3.97065 539.09418
-3.95538 625.51297
-3.94786 689.05958
-3.93244 750.05684
-3.91713 831.39132
-3.90180 907.64150
-3.88644 978.80738
-3.86329 1065.21897
-3.83232 1164.33413
-3.76886 1093.09634
-3.74474 1009.18375
-3.72866 953.24203
-3.71253 887.13169
-3.69633 810.85275
-3.68008 724.40520
-3.66383 637.95765
-3.64760 556.59440
-3.63138 475.23115
-3.61521 404.03652
-3.59907 337.92618
-3.57497 256.55574
-3.54294 167.55166
-3.50312 95.48806
-3.40514 52.01283
-3.34033 112.28712
-3.29876 195.29240
-3.28346 276.62688
-3.26836 393.55149
-3.25334 525.72901
-3.23879 739.25539
-3.23847 683.32805
-3.22435 973.11900
-3.22386 886.68583
-3.21025 1267.99424
-3.20991 1206.98260
-3.20942 1120.54943
-3.19633 1593.37532
-3.19598 1532.36367
-3.19564 1471.35202
-3.19519 1392.54531
-3.18889 1672.17484
-3.18304 2030.61108
-3.18269 1969.59943
-3.18235 1908.58778
-3.18200 1847.57614
-3.18166 1786.56449
-3.18131 1725.55284
-3.16975 2467.84684
-3.16940 2406.83519
-3.16906 2345.82355
-3.16871 2284.81190
-3.16837 2223.80025
-3.16802 2162.78860
-3.16771 2106.86126
-3.15960 2530.54367
-3.15623 2864.40817
-3.15588 2803.39652
-3.15554 2742.38487
-3.15519 2681.37323
-3.15485 2620.36158
-3.14898 2976.25567
-3.14871 2927.95478
-3.14679 3054.21260
-3.14346 3393.16140
-3.14311 3332.14976
-3.14277 3271.13811
-3.14242 3210.12646
-3.14208 3149.11481
-3.13624 3510.09320
-3.13589 3449.08156
-3.13406 3589.74490
-3.13040 3871.07160
-3.13005 3810.05995
-3.12971 3749.04830
-3.12936 3688.03665
-3.12390 4115.11100
-3.12355 4054.09935
-3.12321 3993.08770
-3.12288 3934.61821
-3.11740 4359.15040
-3.11705 4298.13875
-3.11671 4237.12710
-3.11636 4176.11545
-3.11075 4577.76828
-3.11041 4516.75663
-3.11006 4455.74498
-3.10976 4402.35979
-3.10854 4650.64091
-3.10411 4796.38616
-3.10376 4735.37451
-3.09758 5035.34126
-3.09723 4974.32961
-3.09689 4913.31796
-3.09540 5114.99296
-3.09383 4837.05100
-3.09070 5213.28471
-3.08420 5457.32411
-3.08386 5396.31246
-3.08351 5335.30081
-3.08044 5257.33909
-3.07671 5526.80240
-3.06314 5905.60973
-2.98732 5514.85752
-2.98157 5426.72479
-2.98122 5365.71315
-2.98088 5304.70150
-2.97412 5038.61813
-2.97256 5228.42975
-2.97222 5167.41810
-2.97187 5106.40645
-2.96321 4969.12305
-2.96287 4908.11140
-2.96252 4847.09976
-2.95582 4591.18499
-2.95430 4786.08092
-2.95395 4725.06927
-2.95361 4664.05762
-2.94503 4542.02713
-2.94469 4481.01548
-2.94434 4420.00384
-2.94230 4059.01825
-2.93597 4333.56348
-2.93563 4272.55183
-2.93528 4211.54018
-2.93494 4150.52853
-2.93459 4089.51689
-2.92622 4003.07653
-2.92588 3942.06488
-2.92553 3881.05323
-2.91842 3552.26344
-2.91725 3809.86578
-2.91690 3748.85413
-2.91656 3687.84249
-2.91621 3626.83084
-2.90758 3494.63174
-2.90724 3433.62009
-2.90689 3372.60845
-2.89852 3286.16809
-2.89817 3225.15644
-2.89783 3164.14479
-2.89748 3103.13314
-2.89714 3042.12150
-2.89679 2981.10985
-2.88842 2894.66949
-2.88808 2833.65784
-2.87971 2747.21748
-2.87936 2686.20583
-2.87902 2625.19418
-2.87867 2564.18254
-2.87833 2503.17089
-2.86996 2416.73053
-2.86961 2355.71888
-2.86127 2274.36283
-2.86092 2213.35118
-2.86058 2152.33953
-2.86023 2091.32788
-2.85990 2032.85839
-2.85155 1948.96018
-2.85120 1887.94853
-2.84289 1811.67678
-2.84254 1750.66513
-2.84220 1689.65348
-2.83388 1613.38173
-2.83354 1552.37008
-2.83319 1491.35843
-2.82750 1413.39431
-2.81668 1359.15215
-2.81634 1298.14050
-2.81599 1237.12885
-2.81565 1176.11720
-2.80736 1104.92976
-2.79908 1033.74231
-2.79873 972.73066
-2.79827 891.38180
-2.78222 840.52437
-2.78188 779.51273
-2.78140 695.62171
-2.76519 616.80062
-2.76470 530.36745
-2.74822 403.24546
-2.73188 301.54500
-2.71566 220.18175
-2.69154 136.26916
-2.66736 42.18797
-2.55732 96.31986
-2.50282 214.90328
-2.47232 395.36731
-2.47184 311.47629
-2.43332 469.05376
-2.41799 545.30394
-2.40275 636.80703
-2.38747 723.22581
-2.37217 804.56029
-2.35684 880.81047
-2.34148 951.97635
-2.31829 1033.30364
-2.30310 1134.97533
-2.23202 1109.48909
-2.20004 1028.11146
-2.18393 967.08543
-2.16782 906.05940
-2.15162 829.78046
-2.14286 674.70199
-2.13543 753.50151
-2.12664 593.33875
-2.11043 514.51765
-2.09422 435.69656
-2.05442 367.02250
-2.03832 305.99646
-2.01421 224.62603
-1.98225 148.33270
-1.95835 102.55239
-1.86331 21.11723
-1.77089 1.14600
-1.50215 0.90080
-1.19324 0.16875
-1.11466 40.77127
-1.05460 106.81208
-1.02862 157.63115
-0.99751 232.59587
-0.96339 331.45394
-0.93554 423.19974
-0.92025 506.65268
-0.90487 574.42902
-0.88948 640.51059
-0.87408 704.89739
-0.85868 769.28419
-0.84337 848.92390
-0.80609 947.52488
-0.76548 1013.24449
-0.69438 983.52132
-0.67029 905.96411
-0.64619 825.86475
-0.63266 755.51989
-0.61652 689.40956
-0.60037 619.90969
-0.58169 569.04987
-0.57346 508.03103
-0.55734 445.31023
-0.54123 384.28420
-0.51874 308.67741
-0.49317 246.96484
-0.43764 185.05547
-0.33474 106.15527
-0.28814 228.13542
-0.26497 777.21628
-0.25031 972.10022
-0.23305 1636.43010
-0.23106 1283.91835
-0.20348 1982.13400
-0.15868 2421.88315
-0.14550 2879.45613
-0.13292 3441.25734
-0.13257 3380.24569
-0.12015 3970.01057
-0.11966 3883.57740
-0.10714 4458.08937
-0.10680 4397.07772
-0.10645 4336.06608
-0.10601 4257.25936
-0.09351 4834.31349
-0.09316 4773.30184
-0.09282 4712.29019
-0.09237 4633.48348
-0.07959 5159.69456
-0.07924 5098.68291
-0.07855 4976.65962
-0.06624 5586.76171
-0.02013 5795.17503
0.01379 5373.14903
0.03172 4989.26970
0.04976 4587.59530
0.06821 4112.19849
0.06853 4056.27115
0.08656 3654.59675
0.08705 3568.16358
0.10486 3207.16361
0.10520 3146.15196
0.10555 3085.14032
0.12298 2790.23630
0.12333 2729.22465
0.12367 2668.21301
0.12402 2607.20136
0.14116 2363.14038
0.14151 2302.12873
0.14185 2241.11709
0.14230 2162.31037
0.15928 1946.21307
0.15963 1885.20142
0.16007 1806.39471
0.17741 1529.28576
0.17787 1447.93690
0.19504 1198.79162
0.21215 959.81495
0.22917 738.63334
0.24567 608.96921
0.27153 217.45622
0.30076 158.11297
0.33373 88.25881
0.41429 58.86597
0.49427 131.83712
0.53168 207.05030
0.56586 295.48555
0.59379 373.50372
0.60916 444.24591
0.62456 508.63271
0.63996 571.32474
0.65843 650.28367
0.68629 741.77525
0.70952 814.45923
0.75453 939.99982
0.81896 974.51412
0.86401 906.68265
0.89074 825.73351
0.90691 754.11518
0.92304 689.69961
0.94440 628.66879
0.96051 567.64275
0.97662 506.61672
0.99273 445.59069
1.01545 376.93221
1.03554 308.27613
1.06752 228.16958
1.10581 147.54884
1.13925 87.01542
1.21837 33.55831
1.27363 18.25506
1.49645 -1.83515
1.70709 23.79122
1.78566 68.63066
1.84047 131.28674
1.87953 193.10981
1.91857 257.89873
1.94965 337.94776
1.98072 419.26785
2.01177 501.85903
2.04281 589.53451
2.07392 663.22815
2.10507 729.29534
2.15984 799.57787
2.23084 788.49715
2.27089 674.48805
2.31583 625.72272
2.34251 554.94218
2.37452 468.48025
2.40655 379.47616
2.43852 301.91176
2.47041 237.48181
2.51814 159.47934
2.57372 88.24874
2.65280 40.72332
2.74743 32.16319
2.84178 72.75132
2.92027 131.14890
2.97513 186.17852
3.02207 248.84179
3.06900 311.50506
3.11592 377.55786
3.16283 443.61067
3.20979 502.88440
3.27248 566.80436
3.35899 600.19692
3.45373 572.14695
3.54077 511.39515
3.61206 449.55614
3.69123 387.20150
3.78609 337.11955
3.92817 300.55259
4.02275 300.46630
4.11733 300.38000
4.19615 300.30808
4.43254 310.26095
4.52713 309.32727
4.62171 310.08836
4.71629 309.15468
4.81087 309.91577
4.90545 309.82947
5.00003 309.74317
5.09461 309.65688
5.18919 309.57058
5.28377 309.48428
5.37835 309.39799
5.47293 309.31169
5.56752 309.22539
5.66210 309.13910
5.75668 309.05280
5.85126 308.96650
5.94584 308.88021
6.00101 308.82987

